1.439847 defocus
0.007279 deltadef
0.364915 theta
48.000000 bfactor
0.019690 lambda
2.700000 Cs
0.070000 qfactor
384 power spectrum patch size
0 flag_prewhiten
0.001233 5052336.333965 88938.650385 5052336.333965 5052336.333965
0.002466 1434676.113692 88981.173680 1434676.113692 1434676.113692
0.003699 962964.824103 89058.127044 962964.824103 962964.824103
0.004932 609662.481987 89169.318302 609662.481987 609662.481987
0.006165 467328.912987 89310.576253 467328.912987 467328.912987
0.007398 394491.240028 89498.759624 394491.240028 394491.240028
0.008631 326912.115360 89739.294006 326912.115360 326912.115360
0.009864 300911.296491 90080.279027 300911.296491 300911.296491
0.011097 264801.589027 90514.365011 264801.589027 264801.589027
0.012330 217307.909543 91022.109175 217307.909543 217307.909543
0.013563 211497.059059 91643.025924 211497.059059 211497.059059
0.014796 183537.990902 92402.968466 183537.990902 183537.990902
0.016029 164222.651536 93320.156151 164222.651536 164222.651536
0.017262 172940.847237 94343.196400 172940.847237 172940.847237
0.018496 190975.359647 95551.926400 190975.359647 190975.359647
0.019729 208638.759750 96994.482582 208638.759750 208638.759750
0.020962 234087.328564 98633.630276 234087.328564 234087.328564
0.022195 256311.965706 100415.527057 256311.965706 256311.965706
0.023428 272037.931102 102267.029781 272037.931102 272037.931102
0.024661 286342.562150 104324.748304 286342.562150 286342.562150
0.025894 285468.726674 106595.735467 285468.726674 285468.726674
0.027127 292083.925698 108949.498099 292083.925698 292083.925698
0.028360 294000.577174 111345.942116 294000.577174 294000.577174
0.029593 283238.071197 113738.965801 283238.071197 283238.071197
0.030826 267046.194926 116115.878379 267046.194926 267046.194926
0.032059 250407.017938 118389.632601 250407.017938 250407.017938
0.033292 247646.696458 120482.475778 247646.696458 247646.696458
0.034525 240254.511014 122360.719081 240254.511014 240254.511014
0.035758 228448.175047 123897.262983 228448.175047 228448.175047
0.036991 215938.006123 125018.885324 215938.006123 215938.006123
0.038224 201555.697246 125653.221532 201555.697246 201555.697246
0.039457 196436.638022 125750.740741 196436.638022 196436.638022
0.040690 184641.885448 125255.569823 184641.885448 184641.885448
0.041923 175441.752479 124109.701125 175441.752479 175441.752479
0.043156 171624.827618 122346.142670 171624.827618 171624.827618
0.044389 160365.078631 119999.967300 160365.078631 160365.078631
0.045622 150687.885098 117106.708432 150687.885098 150687.885098
0.046855 137712.335995 113714.435807 137712.335995 137712.335995
0.048088 129368.674176 109996.620563 129368.674176 129368.674176
0.049321 122839.090840 106067.671317 122839.090840 122839.090840
0.050554 110357.572047 102089.239858 110357.572047 110357.572047
0.051787 105398.664213 98318.715061 105398.664213 105398.664213
0.053020 97700.715288 94918.882198 97700.715288 97700.715288
0.054253 92744.774542 92132.374797 92744.774542 92744.774542
0.055487 92054.162673 90092.569908 92054.162673 92054.162673
0.056720 88006.592098 88939.088301 88006.592098 88006.592098
0.057953 90126.910421 88797.069862 90126.910421 90126.910421
0.059186 91008.400700 89673.937012 91008.400700 91008.400700
0.060419 91728.920059 91526.500701 91728.920059 91728.920059
0.061652 94912.966480 94262.587035 94912.966480 94912.966480
0.062885 99524.692692 97663.055561 99524.692692 99524.692692
0.064118 103004.560756 101494.866826 103004.560756 103004.560756
0.065351 105414.487825 105354.447388 105414.487825 105414.487825
0.066584 109203.909658 108940.201951 109203.909658 109203.909658
0.067817 112763.873176 111991.134769 112763.873176 112763.873176
0.069050 117380.595980 114090.515192 117380.595980 117380.595980
0.070283 117071.200664 115027.781218 117071.200664 117071.200664
0.071516 117566.344377 114704.047604 117566.344377 117566.344377
0.072749 111508.556335 113098.705368 111508.556335 111508.556335
0.073982 106115.406692 110307.459430 106115.406692 106115.406692
0.075215 104259.907171 106594.772140 104259.907171 104259.907171
0.076448 100285.148276 102377.396529 100285.148276 100285.148276
0.077681 96650.598735 98063.177226 96650.598735 96650.598735
0.078914 94012.753722 94147.080409 94012.753722 94012.753722
0.080147 90333.969988 91106.941655 90333.969988 90333.969988
0.081380 89401.335280 89237.294747 89401.335280 89401.335280
0.082613 88645.053707 88770.650870 88645.053707 88645.053707
0.083846 87963.010590 89778.876896 87963.010590 87963.010590
0.085079 90668.756014 92052.083139 90668.756014 90668.756014
0.086312 93666.439211 95246.076878 93666.439211 93666.439211
0.087545 96521.029058 98960.950597 96521.029058 96521.029058
0.088778 102935.074124 102538.043083 102935.074124 102935.074124
0.090011 103281.188869 105381.714678 103281.188869 103281.188869
0.091244 105305.395370 107089.995183 105305.395370 105305.395370
0.092478 104064.156779 107338.709566 104064.156779 104064.156779
0.093711 103721.480446 106055.716275 103721.480446 103721.480446
0.094944 102163.115537 103434.514843 102163.115537 102163.115537
0.096177 98528.689277 99919.268309 98528.689277 98528.689277
0.097410 93419.010930 96096.032967 93419.010930 93419.010930
0.098643 92356.834381 92578.171899 92356.834381 92356.834381
0.099876 88407.320710 89992.926924 88407.320710 88407.320710
0.101109 87080.465651 88807.241885 87080.465651 87080.465651
0.102342 87491.849457 89156.195590 87491.849457 87491.849457
0.103575 89686.051436 90932.748912 89686.051436 89686.051436
0.104808 91781.952001 93708.850436 91781.952001 91781.952001
0.106041 94155.871449 96842.479499 94155.871449 94155.871449
0.107274 95721.220388 99658.190740 95721.220388 95721.220388
0.108507 98686.184798 101513.948559 98686.184798 98686.184798
0.109740 98573.478858 101958.297253 98573.478858 98573.478858
0.110973 99263.471281 100882.171185 99263.471281 99263.471281
0.112206 95274.442964 98545.293467 95274.442964 95274.442964
0.113439 92584.841999 95495.333335 92584.841999 92584.841999
0.114672 90404.416295 92415.454833 90404.416295 90404.416295
0.115905 87893.763260 89989.542743 87893.763260 87893.763260
0.117138 86493.488325 88811.832818 86493.488325 86493.488325
0.118371 88779.395296 89098.010869 88779.395296 88779.395296
0.119604 89649.942490 90682.565148 89649.942490 89649.942490
0.120837 91774.248923 93052.137199 91774.248923 91774.248923
0.122070 93684.434289 95543.326899 93684.434289 93684.434289
0.123303 95802.816289 97428.548934 95802.816289 95802.816289
0.124536 94239.241787 98123.031178 94239.241787 94239.241787
0.125769 93977.393171 97446.643502 93977.393171 93977.393171
0.127002 92590.946409 95606.574104 92590.946409 92590.946409
0.128235 89663.063973 93153.330348 89663.063973 89663.063973
0.129469 88389.743645 90781.711757 88389.743645 88389.743645
0.130702 87212.923800 89168.551002 87212.923800 87212.923800
0.131935 86465.635445 88763.968940 86465.635445 86465.635445
0.133168 87837.132820 89612.410970 87837.132820 87837.132820
0.134401 90611.000360 91346.376289 90611.000360 90611.000360
0.135634 91571.912285 93322.058877 91571.912285 91571.912285
0.136867 90186.584206 94840.273958 90186.584206 90186.584206
0.138100 91148.435349 95373.355572 91148.435349 91148.435349
0.139333 91267.226587 94724.611279 91267.226587 91267.226587
0.140566 90834.219844 93132.086504 90834.219844 90834.219844
0.141799 88168.703886 91171.684688 88168.703886 88168.703886
0.143032 85783.464254 89542.156955 85783.464254 85783.464254
0.144265 86477.853695 88759.253110 86477.853695 86477.853695
0.145498 87003.099951 89054.038087 87003.099951 87003.099951
0.146731 89340.737277 90225.946319 89340.737277 89340.737277
0.147964 91262.280210 91753.132473 91262.280210 91262.280210
0.149197 91402.368642 92987.023866 91402.368642 91402.368642
0.150430 90067.840971 93419.917265 90067.840971 90067.840971
0.151663 90751.073258 92867.226407 90751.073258 90751.073258
0.152896 88781.186461 91583.989113 88781.186461 88781.186461
0.154129 86391.450569 90103.793679 86391.450569 86391.450569
0.155362 85365.057471 89019.959599 85365.057471 85365.057471
0.156595 85187.657686 88742.448810 85187.657686 85187.657686
0.157828 86154.911546 89317.570039 86154.911546 86154.911546
0.159061 87380.293197 90406.730459 87380.293197 87380.293197
0.160294 89227.597491 91472.098884 89227.597491 89227.597491
0.161527 88700.202436 92018.554553 88700.202436 88700.202436
0.162760 89391.741449 91783.369998 89391.741449 89391.741449
0.163993 86938.118888 90885.762140 86938.118888 86938.118888
0.165226 85672.535918 89759.861974 85672.535918 85672.535918
0.166460 85621.082810 88925.980236 85621.082810 85621.082810
0.167693 84753.277642 88739.570382 84753.277642 84753.277642
0.168926 84957.091019 89224.331590 84957.091019 84957.091019
0.170159 86976.751676 90068.639854 86976.751676 86976.751676
0.171392 87711.529766 90812.255989 87711.529766 87711.529766
0.172625 87508.888505 91047.008222 87508.888505 87508.888505
0.173858 87253.152051 90664.090362 87253.152051 87253.152051
0.175091 83736.609136 89879.122482 83736.609136 83736.609136
0.176324 83974.651688 89098.369849 83974.651688 83974.651688
0.177557 85070.803518 88718.914430 85070.803518 85070.803518
0.178790 84827.896314 88898.143310 84827.896314 84827.896314
0.180023 86013.032092 89473.291929 86013.032092 86013.032092
0.181256 87111.658660 90079.208079 87111.658660 87111.658660
0.182489 86847.537704 90356.138119 86847.537704 86847.537704
0.183722 87036.240442 90143.830898 87036.240442 87036.240442
0.184955 84881.495513 89583.261916 84881.495513 84881.495513
0.186188 84120.058823 88995.189250 84120.058823 84120.058823
0.187421 82961.974070 88709.927861 82961.974070 82961.974070
0.188654 83344.485734 88859.533534 83344.485734 83344.485734
0.189887 86646.077140 89298.784213 86646.077140 86646.077140
0.191120 85868.047213 89722.512664 85868.047213 85868.047213
0.192353 86082.752452 89859.873560 86082.752452 86082.752452
0.193586 85816.651391 89622.548782 85816.651391 85816.651391
0.194819 84208.988471 89172.339750 84208.988471 84208.988471
0.196052 83027.182078 88794.990722 83027.182078 83027.182078
0.197285 85373.506704 88711.391361 85373.506704 85373.506704
0.198518 84548.781865 88938.187197 84548.781865 84548.781865
0.199751 85288.432756 89289.418091 85288.432756 85288.432756
0.200984 85387.848453 89504.490102 85387.848453 85387.848453
0.202217 84459.991665 89444.458074 84459.991665 84459.991665
0.203451 84646.650770 89152.753840 84646.650770 84646.650770
0.204684 83906.604673 88832.169742 83906.604673 83906.604673
0.205917 83264.294459 88696.835557 83264.294459 83264.294459
0.207150 85058.352327 88812.899030 85058.352327 85058.352327
0.208383 85002.963056 89066.318146 85002.963056 85002.963056
0.209616 85224.011532 89251.824873 85224.011532 85224.011532
0.210849 84479.259835 89232.750252 84479.259835 84479.259835
0.212082 82371.847209 89031.726886 82371.847209 82371.847209
0.213315 82407.411380 88796.535367 82407.411380 82407.411380
0.214548 82528.902933 88694.498344 82528.902933 82528.902933
0.215781 83068.184755 88782.088976 83068.184755 83068.184755
0.217014 83949.246069 88965.111576 83949.246069 83949.246069
0.218247 84435.570999 89089.993740 84435.570999 84435.570999
0.219480 82804.801519 89053.891509 82804.801519 82804.801519
0.220713 83118.740855 88891.154078 83118.740855 83118.740855
0.221946 84066.863091 88734.528353 84066.863091 84066.863091
0.223179 84351.816898 88697.180401 84351.816898 84351.816898
0.224412 82820.606012 88791.739025 82820.606012 82820.606012
0.225645 84708.577196 88922.443850 84708.577196 84708.577196
0.226878 85598.101494 88974.849766 85598.101494 85598.101494
0.228111 83946.639962 88905.936829 83946.639962 83946.639962
0.229344 84211.666019 88776.422058 84211.666019 84211.666019
0.230577 84070.337783 88694.643849 84070.337783 84070.337783
0.231810 84237.448249 88718.929025 84237.448249 84237.448249
0.233043 84259.365971 88811.480850 84259.365971 84259.365971
0.234276 84069.692779 88883.117661 84069.692779 84069.692779
0.235509 82261.082928 88724.847652 82261.082928 82261.082928
